#  Fermi level (eV): -11.440
#  Charge transfer :   0.131
#    Electron counts for each orbital momentum:
#       0      0.472
#       1      0.673
#       2      7.728
#       3      0.000
#  Number of atoms in cluster:  92
#  Lorentzian broadening with HWHH     0.1000 eV
# -----------------------------------------------------------------------
#      e        sDOS           pDOS          dDOS          fDOS    @#
   -30.0000  6.175074E-03  1.477884E-02  1.359590E-02  4.223826E-03
   -29.5500  2.016587E-03  4.076503E-03  4.423559E-03  1.302199E-03
   -29.1000  1.086045E-03  2.082863E-03  2.783015E-03  7.200493E-04
   -28.6500  7.336139E-04  1.381244E-03  2.252986E-03  5.091770E-04
   -28.2000  5.667982E-04  1.059255E-03  2.052003E-03  4.111436E-04
   -27.7500  4.789942E-04  8.899299E-04  1.987294E-03  3.594651E-04
   -27.3000  4.314599E-04  7.949087E-04  1.993083E-03  3.305502E-04
   -26.8500  4.075506E-04  7.415411E-04  2.042989E-03  3.146863E-04
   -26.4000  3.993230E-04  7.143154E-04  2.125083E-03  3.068895E-04
   -25.9500  4.029174E-04  7.054884E-04  2.234528E-03  3.047549E-04
   -25.5000  4.166654E-04  7.111154E-04  2.369933E-03  3.068680E-04
   -25.0500  4.403513E-04  7.298311E-04  2.533167E-03  3.132231E-04
   -24.6000  4.748311E-04  7.614345E-04  2.726933E-03  3.231717E-04
   -24.1500  5.221573E-04  8.071471E-04  2.956217E-03  3.366451E-04
   -23.7000  5.863335E-04  8.706124E-04  3.230953E-03  3.556587E-04
   -23.2500  6.737278E-04  9.570466E-04  3.562633E-03  3.806991E-04
   -22.8000  7.951727E-04  1.076129E-03  3.972011E-03  4.152427E-04
   -22.3500  9.704545E-04  1.244263E-03  4.488953E-03  4.621267E-04
   -21.9000  1.238039E-03  1.495254E-03  5.176326E-03  5.341392E-04
   -21.4500  1.680517E-03  1.894484E-03  6.134601E-03  6.409039E-04
   -21.0000  2.517923E-03  2.629740E-03  7.689173E-03  8.613972E-04
   -20.5500  4.498842E-03  4.278984E-03  1.065027E-02  1.311828E-03
   -20.1000  1.193578E-02  1.026945E-02  2.017547E-02  3.065442E-03
   -19.6500  1.433793E-01  1.135169E-01  1.719632E-01  3.375739E-02
   -19.2000  2.979043E-02  2.505631E-02  4.695574E-02  8.947088E-03
   -18.7500 -3.343692E-02 -1.622847E-01 -2.806163E-01 -1.444088E-02
   -18.3000  2.151467E-01  1.663319E-01  2.854931E-01  2.899783E-02
   -17.8500  7.218738E-02  9.736161E-02  2.176788E-01  2.185506E-02
   -17.4000  6.554536E-02  8.972436E-02  2.441598E-01  2.589236E-02
   -16.9500  1.155925E-01  1.973063E-01  5.187169E-01  5.571569E-02
   -16.5000  4.590060E-02  1.688999E-01  5.384426E-01  6.100684E-02
   -16.0500  8.148127E-03  2.020561E-02  7.644385E-02  5.997326E-03
   -15.6000  4.308817E-03  8.489146E-03  4.616324E-02  2.540697E-03
   -15.1500  3.132302E-03  5.398635E-03  4.473049E-02  1.675430E-03
   -14.7000  2.736822E-03  4.320484E-03  5.489883E-02  1.389195E-03
   -14.2500  2.765645E-03  4.196556E-03  8.116191E-02  1.373453E-03
   -13.8000  3.248894E-03  5.354767E-03  1.564244E-01  1.696218E-03
   -13.3500  5.497963E-03  1.432225E-02  5.937405E-01  3.628315E-03
   -12.9000  1.209320E-02  5.541919E-02  2.414551E+00  1.183748E-02
   -12.4500  1.867134E-02  5.756857E-02  4.874787E+00  1.876557E-02
   -12.0000  2.661937E-02  7.589553E-02  3.416563E+00  2.263787E-02
   -11.5500  6.810437E-02  7.237572E-02  3.344464E+00  2.628360E-02
   -11.1000  3.016650E-02  1.263826E-01  2.856033E+00  2.886489E-02
   -10.6500  2.197292E-02  5.595683E-02  1.122777E+00  2.283185E-02
   -10.2000  2.334778E-02  2.078443E-02  2.434720E-01  1.112495E-02
    -9.7500  2.680682E-02  2.045778E-02  1.268626E-01  9.537173E-03
    -9.3000  3.192776E-02  2.527686E-02  9.396275E-02  9.856117E-03
    -8.8500  3.996616E-02  3.051088E-02  7.869199E-02  1.115831E-02
    -8.4000  4.991439E-02  3.709754E-02  7.404431E-02  1.320203E-02
    -7.9500  5.663098E-02  4.514900E-02  7.811864E-02  1.531701E-02
    -7.5000  5.268715E-02  5.429553E-02  9.116753E-02  1.605284E-02
    -7.0500  4.740605E-02  6.389341E-02  1.096917E-01  1.597765E-02
    -6.6000  4.949444E-02  7.292828E-02  1.329099E-01  1.664063E-02
    -6.1500  5.781779E-02  7.256186E-02  1.319992E-01  1.815270E-02
    -5.7000  7.245891E-02  6.283083E-02  9.842338E-02  1.973432E-02
    -5.2500  9.211453E-02  6.340914E-02  8.544744E-02  2.212024E-02
    -4.8000  1.164282E-01  7.809222E-02  9.196779E-02  2.486016E-02
    -4.3500  1.316901E-01  9.596937E-02  9.929670E-02  2.616605E-02
    -3.9000  1.139776E-01  9.352127E-02  8.748400E-02  2.471729E-02
    -3.4500  9.456169E-02  8.717535E-02  7.375491E-02  2.278451E-02
    -3.0000  9.682780E-02  9.113978E-02  6.984323E-02  2.262981E-02
    -2.5500  1.249786E-01  1.084736E-01  7.594963E-02  2.493952E-02
    -2.1000  1.612152E-01  1.379721E-01  8.809258E-02  2.915718E-02
    -1.6500  1.571555E-01  1.647364E-01  9.456212E-02  3.300954E-02
    -1.2000  1.223826E-01  1.823910E-01  9.531380E-02  3.493757E-02
    -0.7500  8.617834E-02  1.990203E-01  9.572474E-02  3.595022E-02
    -0.3000  6.089259E-02  2.201360E-01  9.419425E-02  3.580885E-02
     0.1500  4.528965E-02  2.431188E-01  8.829169E-02  3.397121E-02
     0.6000  3.579313E-02  2.596414E-01  7.972649E-02  3.167479E-02
     1.0500  3.000374E-02  2.634186E-01  7.148729E-02  2.947425E-02
     1.5000  2.652114E-02  2.580040E-01  6.561080E-02  2.762635E-02
     1.9500  2.451121E-02  2.491907E-01  6.268104E-02  2.663759E-02
     2.4000  2.345999E-02  2.384192E-01  6.221784E-02  2.651114E-02
     2.8500  2.304698E-02  2.249644E-01  6.308227E-02  2.700558E-02
     3.3000  2.307101E-02  2.088402E-01  6.414062E-02  2.784722E-02
     3.7500  2.338639E-02  1.914519E-01  6.504639E-02  2.887909E-02
     4.2000  2.388097E-02  1.748806E-01  6.639932E-02  3.014811E-02
     4.6500  2.451066E-02  1.607997E-01  6.916075E-02  3.180105E-02
     5.1000  2.530603E-02  1.497965E-01  7.410920E-02  3.395598E-02
     5.5500  2.633183E-02  1.415596E-01  8.172869E-02  3.666880E-02
     6.0000  2.763701E-02  1.354743E-01  9.230280E-02  3.996957E-02
     6.4500  2.917824E-02  1.310609E-01  1.060126E-01  4.392633E-02
     6.9000  3.069785E-02  1.281577E-01  1.229420E-01  4.868616E-02
     7.3500  3.167865E-02  1.270177E-01  1.426354E-01  5.442736E-02
     7.8000  3.160889E-02  1.282568E-01  1.626536E-01  6.116919E-02
     8.2500  3.041017E-02  1.318357E-01  1.779816E-01  6.839246E-02
     8.7000  2.858133E-02  1.354785E-01  1.861919E-01  7.500232E-02
     9.1500  2.708166E-02  1.360194E-01  1.907633E-01  8.043341E-02
     9.6000  2.669677E-02  1.321359E-01  1.939506E-01  8.573306E-02
    10.0500  2.706316E-02  1.249540E-01  1.935898E-01  9.273682E-02
    10.5000  2.729985E-02  1.176816E-01  1.879785E-01  1.025861E-01
    10.9500  2.729056E-02  1.132920E-01  1.794481E-01  1.169519E-01
    11.4000  2.738975E-02  1.129118E-01  1.717808E-01  1.391291E-01
    11.8500  2.787828E-02  1.163940E-01  1.667168E-01  1.677530E-01
    12.3000  2.885383E-02  1.227990E-01  1.634930E-01  1.862175E-01
    12.7500  3.010332E-02  1.308524E-01  1.617505E-01  1.852830E-01
    13.2000  3.093000E-02  1.397149E-01  1.637285E-01  1.796590E-01
    13.6500  3.060315E-02  1.489622E-01  1.705323E-01  1.789827E-01
    14.1000  2.944333E-02  1.574344E-01  1.785978E-01  1.808292E-01
    14.5500  2.861409E-02  1.625073E-01  1.826871E-01  1.802282E-01
    15.0000  2.882785E-02  1.627227E-01  1.820440E-01  1.759196E-01
